# d (nm)	h (nm)	F (kT)
# Total number of tethers: 156
-240	1	467.334
-240	3.05263	293.238
-240	5.10526	213.012
-240	7.15789	160.293
-240	9.21053	120.96
-240	11.2632	89.5745
-240	13.3158	63.458
-240	15.3684	41.0931
-240	17.4211	21.5362
-240	19.4737	4.16025
-240	21.5263	0
-240	23.5789	0
-240	25.6316	0
-240	27.6842	0
-240	29.7368	0
-240	31.7895	0
-240	33.8421	0
-240	35.8947	0
-240	37.9474	0
-240	40	0

-227.692	1	467.334
-227.692	3.05263	293.238
-227.692	5.10526	213.012
-227.692	7.15789	160.293
-227.692	9.21053	120.96
-227.692	11.2632	89.5745
-227.692	13.3158	63.458
-227.692	15.3684	41.0931
-227.692	17.4211	21.5362
-227.692	19.4737	4.16025
-227.692	21.5263	0
-227.692	23.5789	0
-227.692	25.6316	0
-227.692	27.6842	0
-227.692	29.7368	0
-227.692	31.7895	0
-227.692	33.8421	0
-227.692	35.8947	0
-227.692	37.9474	0
-227.692	40	0

-215.385	1	465.764
-215.385	3.05263	292.476
-215.385	5.10526	212.474
-215.385	7.15789	159.829
-215.385	9.21053	120.559
-215.385	11.2632	89.3651
-215.385	13.3158	63.2462
-215.385	15.3684	40.8555
-215.385	17.4211	21.3506
-215.385	19.4737	4.01252
-215.385	21.5263	-0.0926616
-215.385	23.5789	0
-215.385	25.6316	0
-215.385	27.6842	0
-215.385	29.7368	0
-215.385	31.7895	0
-215.385	33.8421	0
-215.385	35.8947	0
-215.385	37.9474	0
-215.385	40	0

-203.077	1	464.746
-203.077	3.05263	291.961
-203.077	5.10526	212.124
-203.077	7.15789	159.586
-203.077	9.21053	120.327
-203.077	11.2632	89.0087
-203.077	13.3158	62.9546
-203.077	15.3684	40.6962
-203.077	17.4211	21.2219
-203.077	19.4737	3.85611
-203.077	21.5263	-0.308353
-203.077	23.5789	-0.257537
-203.077	25.6316	-0.205353
-203.077	27.6842	-0.197286
-203.077	29.7368	-0.147709
-203.077	31.7895	-0.141736
-203.077	33.8421	-0.0472345
-203.077	35.8947	0
-203.077	37.9474	0
-203.077	40	0

-190.769	1	461.633
-190.769	3.05263	290.062
-190.769	5.10526	210.492
-190.769	7.15789	158.437
-190.769	9.21053	119.584
-190.769	11.2632	88.5987
-190.769	13.3158	62.574
-190.769	15.3684	40.3051
-190.769	17.4211	20.7333
-190.769	19.4737	3.40588
-190.769	21.5263	-0.682702
-190.769	23.5789	-0.655068
-190.769	25.6316	-0.550401
-190.769	27.6842	-0.406796
-190.769	29.7368	-0.30742
-190.769	31.7895	-0.293234
-190.769	33.8421	-0.240129
-190.769	35.8947	-0.145273
-190.769	37.9474	-0.138528
-190.769	40	0

-178.462	1	458.78
-178.462	3.05263	288.321
-178.462	5.10526	209.322
-178.462	7.15789	157.42
-178.462	9.21053	118.415
-178.462	11.2632	87.3376
-178.462	13.3158	61.575
-178.462	15.3684	39.4273
-178.462	17.4211	20.0446
-178.462	19.4737	2.84657
-178.462	21.5263	-1.19874
-178.462	23.5789	-1.05163
-178.462	25.6316	-0.89667
-178.462	27.6842	-0.745363
-178.462	29.7368	-0.67428
-178.462	31.7895	-0.572687
-178.462	33.8421	-0.507279
-178.462	35.8947	-0.320768
-178.462	37.9474	-0.186746
-178.462	40	0

-166.154	1	452.311
-166.154	3.05263	284.53
-166.154	5.10526	206.692
-166.154	7.15789	155.175
-166.154	9.21053	116.586
-166.154	11.2632	86.0985
-166.154	13.3158	60.6007
-166.154	15.3684	38.4731
-166.154	17.4211	19.1442
-166.154	19.4737	1.99883
-166.154	21.5263	-1.86336
-166.154	23.5789	-1.75447
-166.154	25.6316	-1.57576
-166.154	27.6842	-1.32946
-166.154	29.7368	-1.12034
-166.154	31.7895	-0.902387
-166.154	33.8421	-0.638704
-166.154	35.8947	-0.419719
-166.154	37.9474	-0.189285
-166.154	40	0

-153.846	1	443.286
-153.846	3.05263	279.861
-153.846	5.10526	202.705
-153.846	7.15789	152.337
-153.846	9.21053	114.271
-153.846	11.2632	83.7284
-153.846	13.3158	58.2368
-153.846	15.3684	36.3504
-153.846	17.4211	17.1495
-153.846	19.4737	0.247072
-153.846	21.5263	-3.46188
-153.846	23.5789	-3.04342
-153.846	25.6316	-2.62836
-153.846	27.6842	-2.20327
-153.846	29.7368	-1.64329
-153.846	31.7895	-1.26759
-153.846	33.8421	-0.968544
-153.846	35.8947	-0.605212
-153.846	37.9474	-0.329498
-153.846	40	0

-141.538	1	435.303
-141.538	3.05263	274.213
-141.538	5.10526	198.182
-141.538	7.15789	148.254
-141.538	9.21053	111.048
-141.538	11.2632	81.1073
-141.538	13.3158	56.2109
-141.538	15.3684	34.6609
-141.538	17.4211	15.409
-141.538	19.4737	-1.49596
-141.538	21.5263	-5.41342
-141.538	23.5789	-4.89819
-141.538	25.6316	-4.4514
-141.538	27.6842	-3.67956
-141.538	29.7368	-2.9838
-141.538	31.7895	-2.42713
-141.538	33.8421	-1.79351
-141.538	35.8947	-1.16339
-141.538	37.9474	-0.56457
-141.538	40	0

-129.231	1	423.925
-129.231	3.05263	267.153
-129.231	5.10526	193.338
-129.231	7.15789	144.23
-129.231	9.21053	107.43
-129.231	11.2632	77.3768
-129.231	13.3158	52.6764
-129.231	15.3684	31.5366
-129.231	17.4211	13.0282
-129.231	19.4737	-3.63023
-129.231	21.5263	-7.17537
-129.231	23.5789	-6.53372
-129.231	25.6316	-5.75124
-129.231	27.6842	-5.05324
-129.231	29.7368	-4.46638
-129.231	31.7895	-3.88031
-129.231	33.8421	-3.20693
-129.231	35.8947	-2.1897
-129.231	37.9474	-1.14351
-129.231	40	0

-116.923	1	412.75
-116.923	3.05263	259.49
-116.923	5.10526	188.62
-116.923	7.15789	139.956
-116.923	9.21053	103.741
-116.923	11.2632	74.5488
-116.923	13.3158	50.0332
-116.923	15.3684	28.9963
-116.923	17.4211	10.7724
-116.923	19.4737	-5.82491
-116.923	21.5263	-9.24046
-116.923	23.5789	-8.45007
-116.923	25.6316	-7.67605
-116.923	27.6842	-6.82155
-116.923	29.7368	-5.91208
-116.923	31.7895	-5.09283
-116.923	33.8421	-3.9222
-116.923	35.8947	-2.9772
-116.923	37.9474	-1.60572
-116.923	40	0

-104.615	1	399.935
-104.615	3.05263	252.852
-104.615	5.10526	182.31
-104.615	7.15789	134.935
-104.615	9.21053	99.3201
-104.615	11.2632	71.1061
-104.615	13.3158	47.0661
-104.615	15.3684	25.9285
-104.615	17.4211	7.6227
-104.615	19.4737	-8.78317
-104.615	21.5263	-11.8335
-104.615	23.5789	-10.9017
-104.615	25.6316	-9.67696
-104.615	27.6842	-8.32461
-104.615	29.7368	-7.37499
-104.615	31.7895	-6.14698
-104.615	33.8421	-4.73756
-104.615	35.8947	-3.28519
-104.615	37.9474	-1.82308
-104.615	40	0

-92.3077	1	387.722
-92.3077	3.05263	243.49
-92.3077	5.10526	174.888
-92.3077	7.15789	127.979
-92.3077	9.21053	93.768
-92.3077	11.2632	66.1218
-92.3077	13.3158	42.8675
-92.3077	15.3684	22.577
-92.3077	17.4211	4.78223
-92.3077	19.4737	-11.396
-92.3077	21.5263	-14.5523
-92.3077	23.5789	-13.2287
-92.3077	25.6316	-12.0186
-92.3077	27.6842	-10.7959
-92.3077	29.7368	-9.29702
-92.3077	31.7895	-7.47406
-92.3077	33.8421	-5.66605
-92.3077	35.8947	-3.46265
-92.3077	37.9474	-2.21338
-92.3077	40	0

-80	1	375.613
-80	3.05263	236.22
-80	5.10526	169.591
-80	7.15789	124.01
-80	9.21053	90.6306
-80	11.2632	63.442
-80	13.3158	39.7238
-80	15.3684	19.4434
-80	17.4211	1.54358
-80	19.4737	-14.2384
-80	21.5263	-16.7343
-80	23.5789	-15.3897
-80	25.6316	-13.7701
-80	27.6842	-12.321
-80	29.7368	-10.474
-80	31.7895	-8.88958
-80	33.8421	-6.92985
-80	35.8947	-4.96309
-80	37.9474	-2.44417
-80	40	0

-67.6923	1	362.9
-67.6923	3.05263	227.663
-67.6923	5.10526	161.916
-67.6923	7.15789	117.762
-67.6923	9.21053	85.3173
-67.6923	11.2632	58.6529
-67.6923	13.3158	35.752
-67.6923	15.3684	16.1258
-67.6923	17.4211	-1.388
-67.6923	19.4737	-16.9032
-67.6923	21.5263	-19.4609
-67.6923	23.5789	-17.8439
-67.6923	25.6316	-16.1586
-67.6923	27.6842	-13.9668
-67.6923	29.7368	-12.0793
-67.6923	31.7895	-10.0467
-67.6923	33.8421	-7.87856
-67.6923	35.8947	-5.27388
-67.6923	37.9474	-2.94363
-67.6923	40	0

-55.3846	1	352.487
-55.3846	3.05263	221.455
-55.3846	5.10526	158.4
-55.3846	7.15789	115.572
-55.3846	9.21053	82.0525
-55.3846	11.2632	55.4731
-55.3846	13.3158	32.8946
-55.3846	15.3684	13.5477
-55.3846	17.4211	-3.91118
-55.3846	19.4737	-19.6038
-55.3846	21.5263	-22.1956
-55.3846	23.5789	-20.2771
-55.3846	25.6316	-18.1559
-55.3846	27.6842	-16.2668
-55.3846	29.7368	-14.1948
-55.3846	31.7895	-11.6698
-55.3846	33.8421	-8.9211
-55.3846	35.8947	-5.98147
-55.3846	37.9474	-3.26868
-55.3846	40	0

-43.0769	1	341.277
-43.0769	3.05263	214.714
-43.0769	5.10526	153.03
-43.0769	7.15789	110.841
-43.0769	9.21053	77.9513
-43.0769	11.2632	51.7831
-43.0769	13.3158	29.6663
-43.0769	15.3684	10.1855
-43.0769	17.4211	-6.53602
-43.0769	19.4737	-21.9473
-43.0769	21.5263	-24.0134
-43.0769	23.5789	-22.2575
-43.0769	25.6316	-20.1243
-43.0769	27.6842	-17.9686
-43.0769	29.7368	-15.592
-43.0769	31.7895	-13.0685
-43.0769	33.8421	-10.2174
-43.0769	35.8947	-7.45171
-43.0769	37.9474	-3.99249
-43.0769	40	0

-30.7692	1	330.322
-30.7692	3.05263	208.369
-30.7692	5.10526	147.719
-30.7692	7.15789	105.731
-30.7692	9.21053	74.534
-30.7692	11.2632	48.7244
-30.7692	13.3158	27.0247
-30.7692	15.3684	8.04098
-30.7692	17.4211	-8.73482
-30.7692	19.4737	-23.7671
-30.7692	21.5263	-25.8703
-30.7692	23.5789	-23.8472
-30.7692	25.6316	-21.5035
-30.7692	27.6842	-19.2124
-30.7692	29.7368	-16.9127
-30.7692	31.7895	-14.3551
-30.7692	33.8421	-11.7762
-30.7692	35.8947	-8.20326
-30.7692	37.9474	-4.37104
-30.7692	40	0

-18.4615	1	325.548
-18.4615	3.05263	205.907
-18.4615	5.10526	146.046
-18.4615	7.15789	103.794
-18.4615	9.21053	72.5549
-18.4615	11.2632	47.8303
-18.4615	13.3158	26.1172
-18.4615	15.3684	7.06836
-18.4615	17.4211	-9.87349
-18.4615	19.4737	-25.2695
-18.4615	21.5263	-27.5208
-18.4615	23.5789	-25.0735
-18.4615	25.6316	-22.926
-18.4615	27.6842	-20.5771
-18.4615	29.7368	-18.13
-18.4615	31.7895	-15.0066
-18.4615	33.8421	-11.8565
-18.4615	35.8947	-7.88998
-18.4615	37.9474	-4.24344
-18.4615	40	0

-6.15385	1	324.276
-6.15385	3.05263	204.162
-6.15385	5.10526	144.577
-6.15385	7.15789	104.542
-6.15385	9.21053	72.4526
-6.15385	11.2632	46.7694
-6.15385	13.3158	25.1732
-6.15385	15.3684	6.54372
-6.15385	17.4211	-10.6055
-6.15385	19.4737	-25.4683
-6.15385	21.5263	-27.6367
-6.15385	23.5789	-25.5467
-6.15385	25.6316	-23.1949
-6.15385	27.6842	-20.702
-6.15385	29.7368	-17.8399
-6.15385	31.7895	-14.5368
-6.15385	33.8421	-11.384
-6.15385	35.8947	-7.93482
-6.15385	37.9474	-4.53712
-6.15385	40	0

6.15385	1	327.804
6.15385	3.05263	207.491
6.15385	5.10526	147.03
6.15385	7.15789	105.155
6.15385	9.21053	73.5082
6.15385	11.2632	47.8512
6.15385	13.3158	25.9677
6.15385	15.3684	7.87319
6.15385	17.4211	-8.90476
6.15385	19.4737	-23.7244
6.15385	21.5263	-25.8116
6.15385	23.5789	-23.7473
6.15385	25.6316	-21.7128
6.15385	27.6842	-19.4873
6.15385	29.7368	-16.9739
6.15385	31.7895	-14.0862
6.15385	33.8421	-11.498
6.15385	35.8947	-8.03103
6.15385	37.9474	-4.47125
6.15385	40	0

18.4615	1	335.532
18.4615	3.05263	211.1
18.4615	5.10526	150.323
18.4615	7.15789	108.204
18.4615	9.21053	75.9753
18.4615	11.2632	49.9804
18.4615	13.3158	28.7517
18.4615	15.3684	10.0781
18.4615	17.4211	-6.33949
18.4615	19.4737	-21.707
18.4615	21.5263	-24.1185
18.4615	23.5789	-22.1871
18.4615	25.6316	-20.1725
18.4615	27.6842	-17.9655
18.4615	29.7368	-15.5696
18.4615	31.7895	-12.9522
18.4615	33.8421	-10.1435
18.4615	35.8947	-7.07243
18.4615	37.9474	-3.66422
18.4615	40	0

30.7692	1	347.312
30.7692	3.05263	221.114
30.7692	5.10526	157.095
30.7692	7.15789	114.062
30.7692	9.21053	81.1485
30.7692	11.2632	54.7255
30.7692	13.3158	32.7711
30.7692	15.3684	13.2816
30.7692	17.4211	-3.62015
30.7692	19.4737	-19.5262
30.7692	21.5263	-21.5857
30.7692	23.5789	-19.7797
30.7692	25.6316	-17.9855
30.7692	27.6842	-16.1374
30.7692	29.7368	-13.7993
30.7692	31.7895	-11.2995
30.7692	33.8421	-8.70104
30.7692	35.8947	-6.24625
30.7692	37.9474	-3.04603
30.7692	40	0

43.0769	1	361.531
43.0769	3.05263	228.238
43.0769	5.10526	163.126
43.0769	7.15789	119.519
43.0769	9.21053	85.3372
43.0769	11.2632	58.4195
43.0769	13.3158	35.5923
43.0769	15.3684	16.1673
43.0769	17.4211	-1.09192
43.0769	19.4737	-16.5941
43.0769	21.5263	-19.0402
43.0769	23.5789	-17.3644
43.0769	25.6316	-15.8499
43.0769	27.6842	-13.9076
43.0769	29.7368	-12.3984
43.0769	31.7895	-10.1173
43.0769	33.8421	-7.73586
43.0769	35.8947	-5.58701
43.0769	37.9474	-2.97557
43.0769	40	0

55.3846	1	371.017
55.3846	3.05263	234.619
55.3846	5.10526	167.968
55.3846	7.15789	123.505
55.3846	9.21053	89.4559
55.3846	11.2632	62.1418
55.3846	13.3158	39.0932
55.3846	15.3684	19.0169
55.3846	17.4211	1.179
55.3846	19.4737	-14.6508
55.3846	21.5263	-17.036
55.3846	23.5789	-15.5533
55.3846	25.6316	-14.0722
55.3846	27.6842	-12.4808
55.3846	29.7368	-10.8001
55.3846	31.7895	-9.11494
55.3846	33.8421	-6.49071
55.3846	35.8947	-4.70302
55.3846	37.9474	-2.69327
55.3846	40	0

67.6923	1	383.518
67.6923	3.05263	243.197
67.6923	5.10526	174.284
67.6923	7.15789	128.716
67.6923	9.21053	94.0624
67.6923	11.2632	65.53
67.6923	13.3158	41.7896
67.6923	15.3684	21.5359
67.6923	17.4211	3.69517
67.6923	19.4737	-12.177
67.6923	21.5263	-15.0318
67.6923	23.5789	-13.8929
67.6923	25.6316	-12.4307
67.6923	27.6842	-11.053
67.6923	29.7368	-9.43806
67.6923	31.7895	-7.73027
67.6923	33.8421	-5.71871
67.6923	35.8947	-3.8599
67.6923	37.9474	-1.91369
67.6923	40	0

80	1	393.037
80	3.05263	249.06
80	5.10526	179.236
80	7.15789	132.142
80	9.21053	97.0213
80	11.2632	68.8347
80	13.3158	44.6552
80	15.3684	24.045
80	17.4211	5.94219
80	19.4737	-10.0479
80	21.5263	-12.8754
80	23.5789	-11.8643
80	25.6316	-10.5965
80	27.6842	-9.32922
80	29.7368	-7.96044
80	31.7895	-6.29202
80	33.8421	-5.01036
80	35.8947	-3.67192
80	37.9474	-1.93357
80	40	0

92.3077	1	404.803
92.3077	3.05263	254.936
92.3077	5.10526	183.734
92.3077	7.15789	135.929
92.3077	9.21053	99.9028
92.3077	11.2632	71.1833
92.3077	13.3158	47.153
92.3077	15.3684	26.4365
92.3077	17.4211	8.74587
92.3077	19.4737	-7.56924
92.3077	21.5263	-10.7192
92.3077	23.5789	-9.8138
92.3077	25.6316	-8.87431
92.3077	27.6842	-7.91715
92.3077	29.7368	-7.00765
92.3077	31.7895	-5.99738
92.3077	33.8421	-4.85506
92.3077	35.8947	-3.1763
92.3077	37.9474	-1.66511
92.3077	40	0

104.615	1	416.081
104.615	3.05263	262.087
104.615	5.10526	189.746
104.615	7.15789	141.348
104.615	9.21053	104.66
104.615	11.2632	74.8557
104.615	13.3158	50.3961
104.615	15.3684	29.4353
104.615	17.4211	10.6543
104.615	19.4737	-6.00614
104.615	21.5263	-9.6889
104.615	23.5789	-9.10337
104.615	25.6316	-8.11153
104.615	27.6842	-7.0654
104.615	29.7368	-6.03755
104.615	31.7895	-4.62308
104.615	33.8421	-3.69499
104.615	35.8947	-2.36315
104.615	37.9474	-1.29087
104.615	40	0

116.923	1	421.843
116.923	3.05263	266.052
116.923	5.10526	191.362
116.923	7.15789	142.926
116.923	9.21053	106.496
116.923	11.2632	77.1177
116.923	13.3158	52.543
116.923	15.3684	31.2548
116.923	17.4211	12.4063
116.923	19.4737	-4.13421
116.923	21.5263	-7.51219
116.923	23.5789	-7.06439
116.923	25.6316	-6.22844
116.923	27.6842	-5.36547
116.923	29.7368	-4.62618
116.923	31.7895	-3.90557
116.923	33.8421	-2.84859
116.923	35.8947	-1.935
116.923	37.9474	-1.17991
116.923	40	0

129.231	1	431.845
129.231	3.05263	271.877
129.231	5.10526	196.201
129.231	7.15789	146.782
129.231	9.21053	109.258
129.231	11.2632	79.3414
129.231	13.3158	54.617
129.231	15.3684	33.2254
129.231	17.4211	14.6752
129.231	19.4737	-1.91115
129.231	21.5263	-5.60958
129.231	23.5789	-5.17301
129.231	25.6316	-4.73633
129.231	27.6842	-4.1371
129.231	29.7368	-3.74017
129.231	31.7895	-3.1369
129.231	33.8421	-2.50393
129.231	35.8947	-1.67901
129.231	37.9474	-0.930499
129.231	40	0

141.538	1	441.063
141.538	3.05263	277.67
141.538	5.10526	201.299
141.538	7.15789	151.142
141.538	9.21053	113.016
141.538	11.2632	82.6277
141.538	13.3158	57.3658
141.538	15.3684	35.5305
141.538	17.4211	16.6006
141.538	19.4737	-0.336263
141.538	21.5263	-4.11126
141.538	23.5789	-3.85192
141.538	25.6316	-3.48257
141.538	27.6842	-3.14167
141.538	29.7368	-2.80855
141.538	31.7895	-2.34915
141.538	33.8421	-1.8256
141.538	35.8947	-1.24536
141.538	37.9474	-0.738394
141.538	40	0

153.846	1	448.954
153.846	3.05263	282.69
153.846	5.10526	204.997
153.846	7.15789	153.761
153.846	9.21053	115.395
153.846	11.2632	84.788
153.846	13.3158	59.2939
153.846	15.3684	37.2155
153.846	17.4211	18.0623
153.846	19.4737	0.90067
153.846	21.5263	-2.85675
153.846	23.5789	-2.5925
153.846	25.6316	-2.24461
153.846	27.6842	-1.96321
153.846	29.7368	-1.81169
153.846	31.7895	-1.27385
153.846	33.8421	-1.10293
153.846	35.8947	-0.767965
153.846	37.9474	-0.414821
153.846	40	0

166.154	1	455.017
166.154	3.05263	286.358
166.154	5.10526	207.886
166.154	7.15789	156.302
166.154	9.21053	117.365
166.154	11.2632	86.5716
166.154	13.3158	60.7626
166.154	15.3684	38.8799
166.154	17.4211	19.6668
166.154	19.4737	2.36238
166.154	21.5263	-1.59991
166.154	23.5789	-1.39516
166.154	25.6316	-1.22494
166.154	27.6842	-1.02681
166.154	29.7368	-0.828773
166.154	31.7895	-0.544309
166.154	33.8421	-0.519604
166.154	35.8947	-0.323805
166.154	37.9474	-0.141459
166.154	40	0

178.462	1	459.668
178.462	3.05263	288.978
178.462	5.10526	210.315
178.462	7.15789	158.036
178.462	9.21053	119.081
178.462	11.2632	87.9951
178.462	13.3158	62.1012
178.462	15.3684	40.0636
178.462	17.4211	20.5937
178.462	19.4737	3.45445
178.462	21.5263	-0.670067
178.462	23.5789	-0.522128
178.462	25.6316	-0.410826
178.462	27.6842	-0.347296
178.462	29.7368	-0.291181
178.462	31.7895	-0.238718
178.462	33.8421	-0.100721
178.462	35.8947	-0.0959773
178.462	37.9474	-0.0470315
178.462	40	0

190.769	1	463.291
190.769	3.05263	290.947
190.769	5.10526	211.955
190.769	7.15789	159.399
190.769	9.21053	120.137
190.769	11.2632	88.9796
190.769	13.3158	63.0189
190.769	15.3684	40.6938
190.769	17.4211	21.2642
190.769	19.4737	3.95077
190.769	21.5263	-0.154861
190.769	23.5789	-0.105835
190.769	25.6316	-0.101873
190.769	27.6842	-0.0980558
190.769	29.7368	-0.0943999
190.769	31.7895	-0.0469823
190.769	33.8421	0
190.769	35.8947	0
190.769	37.9474	0
190.769	40	0

203.077	1	466.373
203.077	3.05263	292.776
203.077	5.10526	212.685
203.077	7.15789	160.014
203.077	9.21053	120.674
203.077	11.2632	89.3314
203.077	13.3158	63.3544
203.077	15.3684	41.015
203.077	17.4211	21.5362
203.077	19.4737	4.16025
203.077	21.5263	0
203.077	23.5789	0
203.077	25.6316	0
203.077	27.6842	0
203.077	29.7368	0
203.077	31.7895	0
203.077	33.8421	0
203.077	35.8947	0
203.077	37.9474	0
203.077	40	0

215.385	1	467.334
215.385	3.05263	293.238
215.385	5.10526	213.012
215.385	7.15789	160.293
215.385	9.21053	120.96
215.385	11.2632	89.5745
215.385	13.3158	63.458
215.385	15.3684	41.0931
215.385	17.4211	21.5362
215.385	19.4737	4.16025
215.385	21.5263	0
215.385	23.5789	0
215.385	25.6316	0
215.385	27.6842	0
215.385	29.7368	0
215.385	31.7895	0
215.385	33.8421	0
215.385	35.8947	0
215.385	37.9474	0
215.385	40	0

227.692	1	467.334
227.692	3.05263	293.238
227.692	5.10526	213.012
227.692	7.15789	160.293
227.692	9.21053	120.96
227.692	11.2632	89.5745
227.692	13.3158	63.458
227.692	15.3684	41.0931
227.692	17.4211	21.5362
227.692	19.4737	4.16025
227.692	21.5263	0
227.692	23.5789	0
227.692	25.6316	0
227.692	27.6842	0
227.692	29.7368	0
227.692	31.7895	0
227.692	33.8421	0
227.692	35.8947	0
227.692	37.9474	0
227.692	40	0

240	1	467.334
240	3.05263	293.238
240	5.10526	213.012
240	7.15789	160.293
240	9.21053	120.96
240	11.2632	89.5745
240	13.3158	63.458
240	15.3684	41.0931
240	17.4211	21.5362
240	19.4737	4.16025
240	21.5263	0
240	23.5789	0
240	25.6316	0
240	27.6842	0
240	29.7368	0
240	31.7895	0
240	33.8421	0
240	35.8947	0
240	37.9474	0
240	40	0

